wavelength,Ud Qb Fibers
190,52.75
191,53.14999999999999
192,53.675
193,53.849999999999994
194,53.95
195,53.95
196,53.900000000000006
197,53.900000000000006
198,53.85000000000001
199,53.775000000000006
200,53.8
201,54.00000000000001
202,54.1
203,54.15
204,54.199999999999996
205,54.199999999999996
206,54.45
207,54.95
208,55.65
209,56.25
210,56.400000000000006
211,56.349999999999994
212,56.349999999999994
213,56.725
214,57.375
215,38.5
216,17.675
217,8.125
218,3.7
219,1.7
220,0.8
221,0.4
222,0.2
223,20.125
224,36.900000000000006
225,44.625
226,49.02499999999999
227,52.599999999999994
228,55.725
229,57.225
230,57.5
231,57.775
232,58.25
233,58.8
234,59.050000000000004
235,59.125
236,59.2
237,59.2
238,59.125
239,59.075
240,59.05
241,59.14999999999999
242,59.375
243,59.4
244,59.425
245,59.6
246,59.775000000000006
247,59.724999999999994
248,59.2
249,58.25
250,57.7
251,58.05
252,59.825
253,62.099999999999994
254,62.55
255,61.975
256,62.550000000000004
257,63.9
258,63.974999999999994
259,62.85
260,62.14999999999999
261,62.025
262,60.449999999999996
263,57.75
264,56.2
265,56.175
266,57.375
267,58.825
268,60.0
269,60.8
270,61.224999999999994
271,61.325
272,61.325
273,61.400000000000006
274,61.825
275,62.475
276,63.12499999999999
277,63.75
278,64.325
279,64.875
280,65.375
281,65.825
282,66.2
283,66.25
284,66.07499999999999
285,65.65
286,65.125
287,64.75
288,64.725
289,64.9
290,65.1
291,64.85
292,64.9
293,65.275
294,65.5
295,65.7
296,66.0
297,66.64999999999999
298,67.5
299,68.92500000000001
300,71.65
301,72.55
302,71.2
303,69.85
304,69.625
305,70.625
306,70.625
307,69.775
308,69.675
309,69.525
310,68.30000000000001
311,67.375
312,67.375
313,68.75
314,69.9
315,69.80000000000001
316,69.35
317,68.75
318,68.7
319,69.0
320,69.3
321,68.75
322,67.775
323,66.875
324,66.325
325,66.325
326,66.5
327,66.375
328,66.17500000000001
329,66.0
330,65.85
331,65.5
332,65.15
333,64.775
334,64.375
335,63.99999999999999
336,63.375
337,63.14999999999999
338,63.4
339,64.175
340,64.825
341,64.725
342,64.275
343,64.05
344,64.02499999999999
345,64.175
346,64.575
347,64.825
348,65.05
349,65.55
350,65.725
351,65.44999999999999
352,64.725
353,63.775
354,62.925
355,62.35
356,62.125
357,62.099999999999994
358,62.099999999999994
359,62.099999999999994
360,62.0
361,61.625
362,61.275
363,61.075
364,61.10000000000001
365,61.175000000000004
366,61.175000000000004
367,60.95
368,60.725
369,60.75
370,61.425000000000004
371,62.52499999999999
372,63.974999999999994
373,65.4
374,65.925
375,65.875
376,65.44999999999999
377,65.3
378,65.32499999999999
379,65.775
380,66.94999999999999
381,68.175
382,68.725
383,68.475
384,68.275
385,68.275
386,68.975
387,69.35
388,69.17500000000001
389,68.775
390,70.72500000000001
391,72.30000000000001
392,72.875
393,73.05
394,73.125
395,73.14999999999999
396,73.14999999999999
397,73.175
398,73.14999999999999
399,72.80000000000001
400,72.65
401,72.35
402,72.25
403,72.5
404,73.125
405,73.625
406,73.725
407,73.625
408,73.4
409,73.125
410,72.825
411,72.825
412,73.05
413,73.2
414,73.2
415,73.22500000000001
416,73.175
417,73.175
418,73.125
419,73.075
420,73.025
421,72.94999999999999
422,72.80000000000001
423,72.7
424,72.675
425,72.6
426,72.525
427,72.425
428,72.4
429,72.4
430,72.44999999999999
431,72.625
432,72.675
433,72.6
434,72.225
435,71.725
436,71.425
437,71.4
438,71.95
439,72.875
440,73.55
441,73.6
442,73.44999999999999
443,73.25
444,72.975
445,72.575
446,72.42500000000001
447,72.375
448,72.375
449,72.425
450,72.525
451,72.6
452,72.6
453,72.55000000000001
454,72.525
455,72.475
456,72.275
457,71.825
458,71.525
459,71.57499999999999
460,71.825
461,72.30000000000001
462,72.9
463,73.175
464,73.175
465,73.15
466,72.94999999999999
467,72.75
468,72.675
469,72.525
470,72.55000000000001
471,72.525
472,72.55000000000001
473,72.55000000000001
474,72.44999999999999
475,72.30000000000001
476,72.05
477,71.55
478,70.94999999999999
479,70.75
480,71.125
481,71.85
482,73.20000000000002
483,73.975
484,74.0
485,73.7
486,73.325
487,73.0
488,72.60000000000001
489,72.3
490,72.075
491,71.975
492,71.94999999999999
493,71.85
494,71.675
495,71.475
496,71.30000000000001
497,71.125
498,71.15
499,71.32499999999999
500,71.425
501,71.625
502,71.55
503,71.35
504,71.0
505,70.55
506,70.25
507,70.1
508,70.05
509,70.05
510,69.975
511,70.0
512,70.07499999999999
513,70.1
514,70.2
515,70.3
516,70.35
517,70.625
518,70.875
519,71.175
520,71.3
521,71.3
522,71.275
523,71.225
524,71.14999999999999
525,71.075
526,71.05
527,71.02499999999999
528,70.94999999999999
529,70.9
530,70.925
531,70.94999999999999
532,70.92500000000001
533,70.825
534,70.825
535,70.775
536,70.57499999999999
537,70.475
538,70.35
539,70.30000000000001
540,70.25
541,70.175
542,69.95
543,69.95000000000002
544,69.94999999999999
545,69.95
546,69.725
547,69.625
548,69.175
549,68.65
550,68.725
551,69.125
552,69.475
553,70.2
554,70.7
555,70.525
556,70.225
557,70.025
558,69.3
559,69.17500000000001
560,70.475
561,71.425
562,71.7
563,71.725
564,72.07499999999999
565,71.975
566,71.85
567,71.975
568,71.82499999999999
569,71.9
570,71.975
571,71.775
572,71.375
573,71.35
574,71.225
575,71.05
576,70.5
577,69.92500000000001
578,69.7
579,69.6
580,69.55
581,69.625
582,69.6
583,69.5
584,69.35
585,69.35
586,69.675
587,70.125
588,70.725
589,71.4
590,72.025
591,72.225
592,72.52499999999999
593,72.9
594,73.025
595,73.5
596,73.89999999999999
597,74.05
598,74.125
599,74.19999999999999
600,74.275
601,74.325
602,74.30000000000001
603,74.30000000000001
604,74.30000000000001
605,74.125
606,73.95
607,73.525
608,73.175
609,72.55
610,71.6
611,68.55
612,65.125
613,66.32499999999999
614,70.0
615,72.75
616,75.275
617,75.85
618,76.075
619,76.64999999999999
620,76.675
621,76.9
622,77.825
623,76.625
624,72.75
625,71.75
626,72.89999999999999
627,74.0
628,75.02499999999999
629,76.375
630,77.0
631,76.39999999999999
632,75.3
633,75.17500000000001
634,75.10000000000001
635,74.95
636,74.97500000000001
637,74.95
638,74.67500000000001
639,74.475
640,74.30000000000001
641,74.2
642,74.175
643,74.0
644,73.57499999999999
645,73.425
646,73.44999999999999
647,73.42499999999998
648,73.275
649,73.15
650,72.875
651,72.64999999999999
652,72.64999999999999
653,72.6
654,72.42500000000001
655,72.375
656,72.275
657,72.225
658,72.225
659,72.29999999999998
660,72.29999999999998
661,72.32499999999999
662,72.30000000000001
663,72.32499999999999
664,72.32499999999999
665,72.375
666,72.3
667,72.3
668,72.25
669,72.4
670,72.35
671,72.375
672,72.35
673,72.225
674,72.05
675,71.725
676,70.7
677,68.60000000000001
678,64.9
679,63.35
680,67.275
681,71.85000000000001
682,73.65
683,74.75
684,77.22500000000001
685,79.625
686,79.625
687,78.15
688,76.525
689,75.425
690,74.89999999999999
691,74.07499999999999
692,73.07499999999999
693,71.42500000000001
694,68.375
695,68.825
696,72.025
697,73.325
698,74.32499999999999
699,75.7
700,76.675
701,76.725
702,75.69999999999999
703,74.02499999999999
704,70.3
705,67.025
706,69.925
707,73.825
708,74.525
709,75.575
710,77.52499999999999
711,77.97500000000001
712,76.5
713,74.95
714,73.7
715,72.6
716,70.95
717,66.65
718,64.55000000000001
719,68.7
720,72.125
721,73.95
722,75.35000000000001
723,78.025
724,78.925
725,77.82499999999999
726,76.6
727,75.67500000000001
728,75.42500000000001
729,74.875
730,74.5
731,73.875
732,73.675
733,73.125
734,73.025
735,72.875
736,72.75
737,72.44999999999999
738,72.1
739,71.825
740,71.0
741,69.6
742,68.925
743,69.27499999999999
744,70.225
745,70.7
746,71.475
747,72.19999999999999
748,72.42500000000001
749,72.325
750,71.95
751,72.025
752,72.05000000000001
753,72.025
754,71.8
755,71.575
756,71.1
757,71.05
758,71.55
759,72.25
760,72.55
761,72.8
762,73.225
763,73.42500000000001
764,73.32499999999999
765,73.225
766,72.9
767,72.82499999999999
768,72.65
769,72.6
770,72.55000000000001
771,72.425
772,71.92500000000001
773,71.75
774,71.7
775,71.075
776,70.8
777,70.625
778,70.625
779,70.675
780,70.75
781,70.925
782,71.5
783,71.575
784,71.57499999999999
785,71.32499999999999
786,70.75
787,68.975
788,65.575
789,62.35
790,65.275
791,71.425
792,72.67500000000001
793,75.325
794,76.825
795,79.25
796,78.9
797,76.525
798,74.275
799,72.225
800,71.5
801,71.30000000000001
802,69.75
803,64.65
804,61.075
805,65.55
806,71.55
807,73.22500000000001
808,74.15
809,76.4
810,78.625
811,78.94999999999999
812,78.15
813,76.44999999999999
814,75.125
815,74.075
816,73.075
817,72.625
818,72.05
819,72.05000000000001
820,72.20000000000002
821,72.20000000000002
822,72.125
823,71.85000000000001
824,71.30000000000001
825,70.525
826,69.85
827,69.925
828,70.32499999999999
829,71.075
830,71.425
831,71.75
832,72.325
833,72.475
834,72.60000000000001
835,72.625
836,72.7
837,72.67500000000001
838,72.55
839,72.45
840,72.45
841,72.45
842,72.25
843,72.225
844,71.80000000000001
845,71.7
846,71.75
847,71.625
848,71.525
849,71.55000000000001
850,71.65
851,71.525
852,71.25
853,71.275
854,71.25
855,71.25
856,71.225
857,71.2
858,71.07499999999999
859,71.025
860,71.05000000000001
861,71.22500000000001
862,71.175
863,71.35
864,71.375
865,71.4
866,71.17500000000001
867,71.05
868,71.025
869,70.67500000000001
870,70.6
871,70.625
872,70.5
873,70.225
874,70.2
875,70.15
876,70.77499999999999
877,70.975
878,71.0
879,71.32499999999999
880,71.025
881,70.95
882,70.95
883,70.75
884,70.4
885,70.55000000000001
886,70.5
887,70.075
888,69.725
889,69.65
890,69.7
891,69.6
892,69.2
893,69.175
894,69.1
895,69.025
896,69.125
897,68.8
898,68.775
899,68.125
900,68.625
901,69.22500000000001
902,68.35000000000001
903,67.675
904,67.95
905,67.4
906,67.35
907,67.375
908,67.125
909,66.95
910,66.6
911,65.32499999999999
912,66.375
913,66.94999999999999
914,66.95
915,68.25
916,68.675
917,69.0
918,68.625
919,68.325
920,67.9
921,67.525
922,67.2
923,67.15
924,66.32499999999999
925,67.025
926,66.325
927,66.025
928,66.575
929,66.625
930,66.225
931,65.65
932,65.25
933,64.625
934,64.075
935,63.85
936,63.3
937,63.2
938,63.62499999999999
939,63.449999999999996
940,63.22500000000001
941,63.199999999999996
942,63.075
943,63.15
944,63.224999999999994
945,64.39999999999999
946,65.15
947,64.9
948,64.825
949,64.875
950,64.475
951,63.9
952,63.75
953,63.275
954,61.675
955,61.85
956,61.95
957,61.25
958,60.824999999999996
959,60.8
960,60.725
961,60.650000000000006
962,60.574999999999996
963,60.3
964,60.2
965,59.900000000000006
966,59.55
967,59.5
968,59.325
969,59.0
970,58.449999999999996
971,58.35
972,58.324999999999996
973,58.275000000000006
974,57.325
975,57.475
976,57.55
977,57.35
978,57.125
979,56.475
980,56.3
981,56.199999999999996
982,56.025
983,55.15
984,55.075
985,54.650000000000006
986,54.074999999999996
987,54.3
988,53.275
989,53.1
990,52.85
991,52.275000000000006
992,51.875
993,51.3
994,50.699999999999996
995,50.25
996,49.925000000000004
997,49.8
998,49.175000000000004
999,48.55
1000.00,48.325
1001.00,46.55
1002.00,45.05
1003.00,44.075
1004.00,43.925
1005.00,40.75
1006.00,36.875
1007.00,37.85
1008.00,38.55
1009.00,35.650000000000006
1010.00,35.775
1011.00,35.3
1012.00,33.25
1013.00,32.55
1014.00,28.950000000000003
1015.00,27.2
1016.00,24.674999999999997
1017.00,22.124999999999996
1018.00,24.2
1019.00,23.775000000000002
1020.00,24.7
1021.00,23.975
1022.00,23.200000000000003
1023.00,23.4
1024.00,27.599999999999998
1025.00,27.175
1026.00,25.924999999999997
1027.00,25.725
1028.00,24.825000000000003
1029.00,22.5
1030.00,22.575
1031.00,23.45
1032.00,24.825
1033.00,23.225
1034.00,22.7
1035.00,22.900000000000002
1036.00,21.5
1037.00,21.225
1038.00,21.474999999999998
1039.00,21.65
1040.00,22.599999999999998
1041.00,23.15
1042.00,23.85
1043.00,23.25
1044.00,26.125
1045.00,26.775
1046.00,26.15
1047.00,24.575
1048.00,25.075000000000003
1049.00,22.4
1050.00,19.325
1051.00,18.275
1052.00,18.175
1053.00,17.15
1054.00,14.55
1055.00,12.600000000000001
1056.00,12.2
1057.00,13.875
1058.00,17.8
1059.00,16.025
1060.00,20.599999999999998
1061.00,21.95
1062.00,22.349999999999998
1063.00,27.65
1064.00,60.825
1065.00,81.05000000000001
1066.00,85.5
1067.00,89.525
1068.00,96.14999999999999
1069.00,101.10000000000001
1070.00,101.49999999999999
1071.00,116.15
1072.00,118.89999999999999
1073.00,117.725
1074.00,118.425
1075.00,117.525
1076.00,111.625
1077.00,109.64999999999999
1078.00,110.875
1079.00,113.425
1080.00,117.17500000000001
1081.00,111.7
1082.00,113.10000000000001
1083.00,114.975
1084.00,115.30000000000001
1085.00,111.875
1086.00,105.85
1087.00,106.325
1088.00,107.275
1089.00,109.35
1090.00,108.5
1091.00,109.55
1092.00,113.4
1093.00,117.125
1094.00,115.8
1095.00,109.775
1096.00,109.85
1097.00,110.225
1098.00,106.575
1099.00,112.075
1100.00,111.89999999999999
